# Macroscopic dielectric function obtained with the BS equation.
#  RPA L0 with KS energies and KS wavefunctions     LOCAL FIELD EFFECTS INCLUDED
# RESONANT-ONLY calculation
# Coulomb term constructed with full W(G1,G2)
# Scissor operator energy =  0.8000 [eV]
# Tolerance = -0.0010 0.0000
# npweps  = 113
# npwwfn  = 259
# nbands  = 8
# loband  = 2
# nkibz   = 3
# nkbz    = 8
# Lorentzian broadening =  0.0001 [eV]
# List of q-points for the optical limit:
# q =  0.938821, 0.000000, 0.000000, [Reduced coords] 
# q =  0.000000, 0.938821, 0.000000, [Reduced coords] 
# q =  0.000000, 0.000000, 0.938821, [Reduced coords] 
# q =  0.000000, 0.813043, 0.813043, [Reduced coords] 
# q =  0.813043, 0.000000, 0.813043, [Reduced coords] 
# q =  0.813043, 0.813043, 0.000000, [Reduced coords] 
# omega [eV]    RE(eps(q=1)) IM(eps(q=1) RE(eps(q=2) ) ... 
  0.000   57.6109    0.0000   57.4571    0.0000   57.4716    0.0000   57.5569    0.0000   57.6940    0.0000   57.6842    0.0000
  0.010   57.6115    0.0215   57.4577    0.0229   57.4723    0.0228   57.5575    0.0215   57.6946    0.0231   57.6848    0.0231
  0.020   57.6134    0.0430   57.4595    0.0457   57.4741    0.0457   57.5594    0.0430   57.6964    0.0462   57.6866    0.0463
  0.030   57.6165    0.0646   57.4626    0.0686   57.4772    0.0685   57.5625    0.0645   57.6996    0.0693   57.6898    0.0694
  0.040   57.6208    0.0861   57.4669    0.0915   57.4815    0.0914   57.5668    0.0860   57.7039    0.0925   57.6941    0.0926
  0.050   57.6264    0.1076   57.4724    0.1144   57.4870    0.1142   57.5723    0.1075   57.7095    0.1156   57.6997    0.1158
  0.060   57.6332    0.1292   57.4792    0.1373   57.4937    0.1371   57.5791    0.1291   57.7163    0.1388   57.7065    0.1390
  0.070   57.6412    0.1508   57.4871    0.1602   57.5017    0.1600   57.5872    0.1506   57.7244    0.1619   57.7146    0.1622
  0.080   57.6505    0.1724   57.4963    0.1831   57.5109    0.1829   57.5965    0.1722   57.7337    0.1851   57.7239    0.1854
  0.090   57.6610    0.1940   57.5068    0.2061   57.5214    0.2059   57.6070    0.1938   57.7443    0.2084   57.7345    0.2087
  0.100   57.6728    0.2156   57.5185    0.2291   57.5331    0.2289   57.6188    0.2154   57.7561    0.2316   57.7463    0.2320
  0.110   57.6858    0.2373   57.5314    0.2521   57.5460    0.2519   57.6318    0.2370   57.7692    0.2549   57.7593    0.2553
  0.120   57.7001    0.2590   57.5455    0.2752   57.5602    0.2749   57.6460    0.2587   57.7835    0.2782   57.7737    0.2786
  0.130   57.7156    0.2808   57.5609    0.2983   57.5756    0.2980   57.6615    0.2804   57.7990    0.3015   57.7892    0.3020
  0.140   57.7324    0.3025   57.5776    0.3214   57.5922    0.3211   57.6783    0.3022   57.8159    0.3249   57.8060    0.3254
  0.150   57.7504    0.3244   57.5954    0.3446   57.6101    0.3442   57.6963    0.3240   57.8339    0.3484   57.8241    0.3489
  0.160   57.7697    0.3462   57.6146    0.3678   57.6292    0.3674   57.7155    0.3458   57.8533    0.3719   57.8435    0.3724
  0.170   57.7902    0.3681   57.6349    0.3911   57.6496    0.3907   57.7361    0.3677   57.8739    0.3954   57.8641    0.3960
  0.180   57.8120    0.3901   57.6566    0.4144   57.6712    0.4140   57.7578    0.3897   57.8958    0.4190   57.8859    0.4196
  0.190   57.8351    0.4121   57.6794    0.4378   57.6941    0.4373   57.7809    0.4116   57.9189    0.4426   57.9091    0.4433
  0.200   57.8594    0.4342   57.7036    0.4612   57.7182    0.4607   57.8052    0.4337   57.9433    0.4663   57.9335    0.4670
  0.210   57.8850    0.4563   57.7289    0.4847   57.7436    0.4842   57.8308    0.4558   57.9690    0.4901   57.9592    0.4908
  0.220   57.9119    0.4785   57.7556    0.5083   57.7703    0.5078   57.8576    0.4780   57.9960    0.5139   57.9861    0.5146
  0.230   57.9401    0.5007   57.7835    0.5319   57.7982    0.5314   57.8857    0.5002   58.0242    0.5378   58.0144    0.5386
  0.240   57.9695    0.5231   57.8127    0.5556   57.8274    0.5550   57.9151    0.5225   58.0537    0.5617   58.0439    0.5626
  0.250   58.0002    0.5455   57.8432    0.5794   57.8579    0.5788   57.9458    0.5448   58.0846    0.5858   58.0747    0.5867
  0.260   58.0323    0.5679   57.8749    0.6033   57.8896    0.6026   57.9778    0.5673   58.1167    0.6099   58.1068    0.6108
  0.270   58.0656    0.5905   57.9080    0.6272   57.9227    0.6265   58.0111    0.5898   58.1501    0.6341   58.1402    0.6350
  0.280   58.1002    0.6131   57.9423    0.6512   57.9570    0.6505   58.0457    0.6124   58.1848    0.6584   58.1749    0.6594
  0.290   58.1361    0.6358   57.9779    0.6753   57.9926    0.6746   58.0815    0.6351   58.2208    0.6828   58.2110    0.6838
  0.300   58.1733    0.6586   58.0148    0.6995   58.0296    0.6988   58.1187    0.6579   58.2582    0.7072   58.2483    0.7083
  0.310   58.2118    0.6815   58.0530    0.7238   58.0678    0.7230   58.1572    0.6807   58.2968    0.7318   58.2869    0.7329
  0.320   58.2517    0.7044   58.0925    0.7482   58.1073    0.7474   58.1970    0.7037   58.3368    0.7565   58.3269    0.7576
  0.330   58.2929    0.7275   58.1334    0.7727   58.1482    0.7719   58.2381    0.7267   58.3781    0.7813   58.3682    0.7824
  0.340   58.3354    0.7507   58.1755    0.7973   58.1903    0.7964   58.2806    0.7499   58.4208    0.8061   58.4109    0.8073
  0.350   58.3792    0.7740   58.2190    0.8220   58.2338    0.8211   58.3244    0.7731   58.4647    0.8311   58.4548    0.8323
  0.360   58.4244    0.7974   58.2638    0.8468   58.2786    0.8459   58.3695    0.7965   58.5101    0.8562   58.5002    0.8575
  0.370   58.4709    0.8209   58.3100    0.8717   58.3248    0.8708   58.4160    0.8200   58.5568    0.8815   58.5468    0.8827
  0.380   58.5188    0.8445   58.3575    0.8968   58.3723    0.8958   58.4639    0.8436   58.6048    0.9068   58.5949    0.9081
  0.390   58.5681    0.8682   58.4063    0.9219   58.4212    0.9210   58.5131    0.8673   58.6542    0.9323   58.6443    0.9336
  0.400   58.6187    0.8920   58.4565    0.9473   58.4714    0.9462   58.5637    0.8911   58.7050    0.9579   58.6951    0.9593
  0.410   58.6707    0.9160   58.5081    0.9727   58.5230    0.9717   58.6156    0.9151   58.7572    0.9836   58.7472    0.9850
  0.420   58.7241    0.9401   58.5610    0.9982   58.5759    0.9972   58.6689    0.9392   58.8107    1.0095   58.8008    1.0109
  0.430   58.7789    0.9644   58.6153    1.0240   58.6302    1.0229   58.7237    0.9634   58.8657    1.0355   58.8557    1.0370
  0.440   58.8351    0.9887   58.6710    1.0498   58.6860    1.0487   58.7798    0.9877   58.9220    1.0617   58.9121    1.0632
  0.450   58.8926    1.0133   58.7281    1.0758   58.7431    1.0747   58.8373    1.0122   58.9798    1.0880   58.9698    1.0895
  0.460   58.9516    1.0379   58.7866    1.1019   58.8016    1.1008   58.8962    1.0369   59.0390    1.1144   59.0290    1.1160
  0.470   59.0121    1.0627   58.8465    1.1282   58.8615    1.1271   58.9566    1.0617   59.0996    1.1411   59.0896    1.1427
  0.480   59.0739    1.0877   58.9078    1.1547   58.9229    1.1535   59.0184    1.0866   59.1617    1.1678   59.1517    1.1695
  0.490   59.1372    1.1128   58.9706    1.1813   58.9856    1.1801   59.0816    1.1117   59.2252    1.1948   59.2152    1.1965
  0.500   59.2020    1.1381   59.0348    1.2081   59.0498    1.2069   59.1463    1.1370   59.2901    1.2219   59.2801    1.2236
  0.510   59.2682    1.1635   59.1004    1.2351   59.1155    1.2338   59.2125    1.1624   59.3565    1.2492   59.3465    1.2510
  0.520   59.3359    1.1891   59.1675    1.2622   59.1826    1.2609   59.2801    1.1880   59.4244    1.2767   59.4144    1.2785
  0.530   59.4050    1.2149   59.2361    1.2896   59.2512    1.2882   59.3492    1.2138   59.4938    1.3044   59.4838    1.3062
  0.540   59.4757    1.2409   59.3062    1.3171   59.3213    1.3157   59.4197    1.2397   59.5647    1.3322   59.5547    1.3341
  0.550   59.5478    1.2670   59.3777    1.3448   59.3928    1.3434   59.4918    1.2659   59.6371    1.3603   59.6270    1.3622
  0.560   59.6215    1.2934   59.4507    1.3727   59.4659    1.3712   59.5654    1.2922   59.7110    1.3885   59.7009    1.3905
  0.570   59.6967    1.3199   59.5252    1.4007   59.5404    1.3993   59.6405    1.3187   59.7864    1.4170   59.7763    1.4189
  0.580   59.7734    1.3466   59.6013    1.4290   59.6165    1.4276   59.7172    1.3454   59.8634    1.4456   59.8533    1.4476
  0.590   59.8517    1.3736   59.6789    1.4576   59.6941    1.4561   59.7954    1.3723   59.9419    1.4745   59.9318    1.4766
  0.600   59.9315    1.4007   59.7580    1.4863   59.7733    1.4848   59.8751    1.3994   60.0220    1.5036   60.0119    1.5057
  0.610   60.0129    1.4280   59.8387    1.5152   59.8540    1.5137   59.9564    1.4268   60.1036    1.5329   60.0935    1.5350
  0.620   60.0959    1.4556   59.9210    1.5444   59.9363    1.5428   60.0393    1.4543   60.1869    1.5625   60.1768    1.5646
  0.630   60.1804    1.4834   60.0048    1.5738   60.0201    1.5722   60.1238    1.4821   60.2717    1.5923   60.2616    1.5945
  0.640   60.2666    1.5114   60.0902    1.6034   60.1056    1.6018   60.2099    1.5101   60.3582    1.6223   60.3480    1.6245
  0.650   60.3544    1.5396   60.1772    1.6333   60.1926    1.6317   60.2976    1.5383   60.4462    1.6526   60.4361    1.6548
  0.660   60.4438    1.5681   60.2659    1.6634   60.2813    1.6618   60.3870    1.5668   60.5360    1.6831   60.5258    1.6854
  0.670   60.5349    1.5968   60.3562    1.6938   60.3716    1.6921   60.4780    1.5955   60.6273    1.7139   60.6172    1.7162
  0.680   60.6277    1.6258   60.4481    1.7245   60.4636    1.7227   60.5706    1.6245   60.7204    1.7450   60.7102    1.7473
  0.690   60.7221    1.6550   60.5417    1.7554   60.5572    1.7536   60.6649    1.6537   60.8151    1.7763   60.8049    1.7787
  0.700   60.8182    1.6845   60.6369    1.7865   60.6525    1.7848   60.7610    1.6832   60.9115    1.8079   60.9013    1.8103
  0.710   60.9160    1.7142   60.7339    1.8180   60.7494    1.8162   60.8587    1.7129   61.0097    1.8398   60.9995    1.8422
  0.720   61.0156    1.7442   60.8326    1.8497   60.8481    1.8479   60.9581    1.7429   61.1095    1.8720   61.0993    1.8744
  0.730   61.1168    1.7745   60.9329    1.8817   60.9485    1.8799   61.0593    1.7732   61.2111    1.9045   61.2009    1.9069
  0.740   61.2199    1.8051   61.0351    1.9141   61.0507    1.9122   61.1623    1.8038   61.3145    1.9372   61.3043    1.9398
  0.750   61.3247    1.8360   61.1389    1.9467   61.1546    1.9448   61.2670    1.8347   61.4197    1.9703   61.4094    1.9729
  0.760   61.4313    1.8671   61.2446    1.9796   61.2603    1.9777   61.3735    1.8658   61.5266    2.0037   61.5163    2.0063
  0.770   61.5397    1.8986   61.3520    2.0129   61.3677    2.0109   61.4818    1.8973   61.6354    2.0374   61.6251    2.0401
  0.780   61.6499    1.9304   61.4612    2.0464   61.4770    2.0444   61.5919    1.9291   61.7459    2.0715   61.7357    2.0742
  0.790   61.7620    1.9625   61.5723    2.0803   61.5881    2.0783   61.7039    1.9612   61.8584    2.1059   61.8481    2.1086
  0.800   61.8759    1.9949   61.6852    2.1146   61.7010    2.1125   61.8177    1.9936   61.9727    2.1406   61.9624    2.1434
  0.810   61.9917    2.0277   61.7999    2.1492   61.8158    2.1471   61.9334    2.0264   62.0889    2.1757   62.0786    2.1785
  0.820   62.1094    2.0608   61.9166    2.1841   61.9325    2.1820   62.0510    2.0595   62.2070    2.2112   62.1966    2.2140
  0.830   62.2291    2.0942   62.0351    2.2194   62.0510    2.2173   62.1706    2.0929   62.3270    2.2470   62.3166    2.2498
  0.840   62.3506    2.1280   62.1556    2.2551   62.1715    2.2529   62.2920    2.1267   62.4489    2.2832   62.4386    2.2861
  0.850   62.4742    2.1622   62.2780    2.2911   62.2939    2.2890   62.4155    2.1609   62.5729    2.3198   62.5625    2.3227
  0.860   62.5997    2.1967   62.4023    2.3275   62.4183    2.3254   62.5409    2.1955   62.6988    2.3568   62.6884    2.3597
  0.870   62.7272    2.2316   62.5287    2.3644   62.5447    2.3622   62.6683    2.2304   62.8267    2.3942   62.8163    2.3971
  0.880   62.8567    2.2669   62.6570    2.4016   62.6731    2.3994   62.7977    2.2657   62.9567    2.4320   62.9463    2.4350
  0.890   62.9883    2.3026   62.7874    2.4392   62.8035    2.4370   62.9292    2.3014   63.0887    2.4702   63.0783    2.4732
  0.900   63.1220    2.3387   62.9198    2.4773   62.9359    2.4750   63.0627    2.3375   63.2228    2.5089   63.2124    2.5119
  0.910   63.2577    2.3752   63.0543    2.5158   63.0705    2.5135   63.1984    2.3740   63.3590    2.5480   63.3485    2.5510
  0.920   63.3956    2.4121   63.1908    2.5547   63.2071    2.5524   63.3361    2.4110   63.4973    2.5875   63.4869    2.5906
  0.930   63.5356    2.4495   63.3295    2.5941   63.3458    2.5917   63.4760    2.4484   63.6378    2.6276   63.6273    2.6306
  0.940   63.6778    2.4873   63.4704    2.6339   63.4867    2.6315   63.6181    2.4862   63.7804    2.6680   63.7700    2.6712
  0.950   63.8222    2.5256   63.6134    2.6742   63.6297    2.6718   63.7623    2.5245   63.9253    2.7090   63.9148    2.7121
  0.960   63.9688    2.5643   63.7586    2.7150   63.7750    2.7126   63.9088    2.5632   64.0724    2.7504   64.0619    2.7536
  0.970   64.1176    2.6035   63.9060    2.7563   63.9225    2.7538   64.0576    2.6025   64.2217    2.7924   64.2112    2.7956
  0.980   64.2687    2.6432   64.0557    2.7981   64.0722    2.7956   64.2086    2.6422   64.3733    2.8349   64.3628    2.8381
  0.990   64.4222    2.6833   64.2077    2.8404   64.2242    2.8379   64.3619    2.6824   64.5272    2.8779   64.5167    2.8811
  1.000   64.5779    2.7240   64.3619    2.8832   64.3785    2.8806   64.5175    2.7231   64.6835    2.9214   64.6730    2.9247
  1.010   64.7361    2.7652   64.5185    2.9266   64.5351    2.9240   64.6755    2.7643   64.8421    2.9655   64.8316    2.9688
  1.020   64.8966    2.8069   64.6775    2.9705   64.6941    2.9679   64.8359    2.8061   65.0032    3.0101   64.9926    3.0135
  1.030   65.0595    2.8492   64.8389    3.0149   64.8555    3.0123   64.9987    2.8484   65.1667    3.0553   65.1561    3.0587
  1.040   65.2249    2.8920   65.0026    3.0599   65.0194    3.0573   65.1640    2.8912   65.3326    3.1012   65.3220    3.1045
  1.050   65.3928    2.9354   65.1689    3.1056   65.1856    3.1029   65.3318    2.9346   65.5010    3.1476   65.4904    3.1510
  1.060   65.5632    2.9793   65.3376    3.1518   65.3544    3.1491   65.5020    2.9786   65.6720    3.1946   65.6613    3.1980
  1.070   65.7361    3.0238   65.5088    3.1986   65.5257    3.1959   65.6749    3.0232   65.8455    3.2422   65.8348    3.2457
  1.080   65.9116    3.0690   65.6827    3.2461   65.6996    3.2433   65.8503    3.0684   66.0216    3.2905   66.0110    3.2940
  1.090   66.0898    3.1147   65.8590    3.2942   65.8760    3.2914   66.0283    3.1142   66.2003    3.3395   66.1897    3.3430
  1.100   66.2706    3.1611   66.0381    3.3429   66.0551    3.3401   66.2090    3.1607   66.3818    3.3891   66.3711    3.3926
  1.110   66.4541    3.2082   66.2197    3.3923   66.2368    3.3895   66.3924    3.2078   66.5659    3.4394   66.5552    3.4430
  1.120   66.6404    3.2559   66.4041    3.4424   66.4212    3.4396   66.5785    3.2556   66.7527    3.4904   66.7420    3.4940
  1.130   66.8294    3.3043   66.5912    3.4933   66.6084    3.4904   66.7674    3.3040   66.9424    3.5422   66.9317    3.5458
  1.140   67.0212    3.3533   66.7811    3.5448   66.7983    3.5419   66.9591    3.3532   67.1348    3.5947   67.1241    3.5983
  1.150   67.2159    3.4031   66.9738    3.5971   66.9911    3.5941   67.1537    3.4030   67.3302    3.6479   67.3194    3.6515
  1.160   67.4135    3.4536   67.1694    3.6501   67.1867    3.6471   67.3511    3.4536   67.5284    3.7019   67.5176    3.7056
  1.170   67.6140    3.5049   67.3679    3.7039   67.3852    3.7009   67.5515    3.5049   67.7295    3.7567   67.7188    3.7604
  1.180   67.8175    3.5569   67.5693    3.7584   67.5867    3.7554   67.7549    3.5570   67.9337    3.8123   67.9229    3.8160
  1.190   68.0240    3.6097   67.7736    3.8138   67.7911    3.8108   67.9612    3.6099   68.1409    3.8687   68.1301    3.8725
  1.200   68.2335    3.6633   67.9811    3.8700   67.9985    3.8669   68.1707    3.6636   68.3511    3.9260   68.3404    3.9298
  1.210   68.4462    3.7177   68.1915    3.9271   68.2091    3.9240   68.3833    3.7181   68.5645    3.9842   68.5537    3.9879
  1.220   68.6621    3.7729   68.4051    3.9850   68.4227    3.9819   68.5990    3.7734   68.7811    4.0432   68.7703    4.0470
  1.230   68.8811    3.8290   68.6219    4.0438   68.6395    4.0406   68.8179    3.8296   69.0009    4.1032   68.9900    4.1070
  1.240   69.1034    3.8860   68.8419    4.1035   68.8596    4.1003   69.0401    3.8867   69.2239    4.1640   69.2131    4.1679
  1.250   69.3291    3.9439   69.0651    4.1641   69.0829    4.1609   69.2656    3.9447   69.4503    4.2259   69.4394    4.2297
  1.260   69.5581    4.0027   69.2917    4.2257   69.3095    4.2225   69.4945    4.0036   69.6800    4.2887   69.6692    4.2926
  1.270   69.7905    4.0624   69.5216    4.2883   69.5395    4.2850   69.7268    4.0635   69.9132    4.3525   69.9023    4.3564
  1.280   70.0263    4.1231   69.7549    4.3518   69.7729    4.3486   69.9625    4.1243   70.1498    4.4174   70.1390    4.4213
  1.290   70.2657    4.1848   69.9918    4.4164   70.0098    4.4131   70.2018    4.1862   70.3900    4.4833   70.3791    4.4872
  1.300   70.5087    4.2475   70.2321    4.4821   70.2502    4.4788   70.4447    4.2490   70.6338    4.5503   70.6229    4.5542
  1.310   70.7553    4.3112   70.4761    4.5488   70.4942    4.5454   70.6912    4.3129   70.8812    4.6184   70.8703    4.6223
  1.320   71.0056    4.3761   70.7237    4.6166   70.7418    4.6132   70.9414    4.3779   71.1324    4.6876   71.1215    4.6916
  1.330   71.2597    4.4420   70.9750    4.6856   70.9932    4.6822   71.1953    4.4439   71.3873    4.7580   71.3764    4.7620
  1.340   71.5176    4.5090   71.2301    4.7557   71.2483    4.7522   71.4531    4.5111   71.6460    4.8296   71.6351    4.8336
  1.350   71.7794    4.5772   71.4890    4.8270   71.5073    4.8235   71.7148    4.5795   71.9087    4.9024   71.8978    4.9064
  1.360   72.0452    4.6466   71.7518    4.8995   71.7702    4.8960   71.9805    4.6490   72.1753    4.9765   72.1644    4.9805
  1.370   72.3150    4.7171   72.0185    4.9732   72.0370    4.9697   72.2502    4.7198   72.4460    5.0519   72.4351    5.0558
  1.380   72.5889    4.7890   72.2894    5.0483   72.3079    5.0448   72.5240    4.7918   72.7208    5.1285   72.7099    5.1325
  1.390   72.8669    4.8620   72.5643    5.1246   72.5829    5.1211   72.8019    4.8651   72.9997    5.2066   72.9888    5.2106
  1.400   73.1492    4.9364   72.8434    5.2023   72.8620    5.1988   73.0841    4.9397   73.2830    5.2860   73.2720    5.2900
  1.410   73.4358    5.0122   73.1267    5.2814   73.1454    5.2778   73.3706    5.0157   73.5705    5.3668   73.5596    5.3708
  1.420   73.7268    5.0893   73.4144    5.3619   73.4332    5.3583   73.6615    5.0930   73.8624    5.4492   73.8515    5.4532
  1.430   74.0223    5.1679   73.7064    5.4439   73.7253    5.4403   73.9569    5.1718   74.1589    5.5330   74.1479    5.5370
  1.440   74.3223    5.2478   74.0030    5.5274   74.0219    5.5237   74.2568    5.2520   74.4599    5.6184   74.4489    5.6224
  1.450   74.6269    5.3293   74.3041    5.6124   74.3231    5.6087   74.5614    5.3338   74.7655    5.7053   74.7546    5.7093
  1.460   74.9363    5.4124   74.6099    5.6990   74.6289    5.6953   74.8707    5.4170   75.0759    5.7939   75.0650    5.7979
  1.470   75.2505    5.4970   74.9204    5.7872   74.9395    5.7835   75.1848    5.5019   75.3911    5.8842   75.3802    5.8882
  1.480   75.5696    5.5832   75.2357    5.8771   75.2549    5.8733   75.5038    5.5884   75.7112    5.9762   75.7003    5.9802
